File: 061824_MetOH_nC5_0.111w_0.2rate_nvo_cadinho.txt
Time	Temperature	Heat Flow (Normalized)
min	Â°C	W/g
11.5733	17.6995	-0.169640
11.8617	17.6427	-0.169232
12.15	17.5845	-0.168802
12.4383	17.5275	-0.168439
12.7267	17.4697	-0.168178
13.015	17.412	-0.168033
13.3033	17.3538	-0.167618
13.5917	17.2966	-0.167203
13.88	17.2394	-0.166916
14.1683	17.182	-0.166662
14.4567	17.1239	-0.166400
14.745	17.0667	-0.166140
15.0333	17.0098	-0.166009
15.3217	16.952	-0.165741
15.61	16.8947	-0.165537
15.8983	16.837	-0.165164
16.1867	16.7803	-0.164882
16.475	16.7205	-0.164619
16.7633	16.6629	-0.164491
17.0517	16.6068	-0.164503
17.34	16.5487	-0.164168
17.6283	16.4905	-0.163938
17.9167	16.4331	-0.163591
18.205	16.3757	-0.163253
18.4933	16.3179	-0.163128
18.7817	16.2602	-0.162785
19.07	16.203	-0.162483
19.3583	16.1461	-0.162412
19.6467	16.0871	-0.162322
19.935	16.0302	-0.161987
20.2233	15.972	-0.161765
20.5117	15.9142	-0.161559
20.8	15.8571	-0.161262
21.0883	15.7998	-0.161102
21.3767	15.7422	-0.160899
21.665	15.6843	-0.161053
21.9533	15.6265	-0.160974
22.2417	15.5709	-0.160582
22.53	15.5123	-0.160365
22.8183	15.4536	-0.160267
23.1067	15.3965	-0.159978
23.395	15.3397	-0.159518
23.6833	15.2812	-0.159189
23.9717	15.2234	-0.159097
24.26	15.1657	-0.159015
24.5483	15.1088	-0.158783
24.8367	15.0507	-0.158555
25.125	14.9941	-0.158374
25.4133	14.9359	-0.158249
25.7017	14.8785	-0.158221
25.99	14.8213	-0.157900
26.2783	14.7635	-0.157698
26.5667	14.7047	-0.157385
26.855	14.6475	-0.157336
27.1433	14.5902	-0.156906
27.4317	14.5337	-0.156641
27.72	14.4753	-0.156434
28.0083	14.418	-0.156264
28.2967	14.3598	-0.156073
28.585	14.3021	-0.155861
28.8733	14.2453	-0.156219
29.1617	14.1863	-0.155985
29.45	14.1301	-0.155602
29.7383	14.0715	-0.155403
30.0267	14.015	-0.155466
30.315	13.9553	-0.158255
30.6033	13.8984	-0.157175
30.8917	13.8415	-0.156182
31.18	13.7839	-0.155712
31.4683	13.7258	-0.155274
31.7567	13.6698	-0.154943
32.045	13.6111	-0.154632
32.3333	13.5535	-0.154490
32.6217	13.4959	-0.154271
32.91	13.4385	-0.153976
33.1983	13.3809	-0.153636
33.4867	13.3225	-0.153278
33.775	13.2651	-0.153065
34.0633	13.209	-0.152592
34.3517	13.1506	-0.152345
34.64	13.0936	-0.152170
34.9283	13.035	-0.152165
35.2167	12.9785	-0.151801
35.505	12.9205	-0.151521
35.7933	12.8624	-0.151369
36.0817	12.8053	-0.151103
36.37	12.7479	-0.150974
36.6583	12.6897	-0.150721
36.9467	12.6322	-0.150753
37.235	12.5746	-0.150538
37.5233	12.5174	-0.150439
37.8117	12.4591	-0.150165
38.1	12.4013	-0.149993
38.3883	12.3441	-0.149700
38.6767	12.287	-0.149507
38.965	12.2295	-0.149282
39.2533	12.1709	-0.149182
39.5417	12.1138	-0.149184
39.83	12.0575	-0.148898
40.1183	11.9989	-0.148754
40.4067	11.9413	-0.148624
40.695	11.8833	-0.148616
40.9833	11.8267	-0.148388
41.2717	11.7678	-0.148615
41.56	11.7104	-0.148106
41.8483	11.6534	-0.147853
42.1367	11.5955	-0.147724
42.425	11.5373	-0.147636
42.7133	11.4803	-0.147840
43.0017	11.4221	-0.147656
43.29	11.3649	-0.147287
43.5783	11.3076	-0.146948
43.8667	11.2501	-0.146829
44.155	11.1921	-0.146633
44.4433	11.135	-0.146369
44.7317	11.0777	-0.146249
45.02	11.0194	-0.146049
45.3083	10.9624	-0.145943
45.5967	10.9042	-0.145748
45.885	10.8464	-0.145690
46.1733	10.7892	-0.145592
46.4617	10.7321	-0.145413
46.75	10.6709	-0.150975
47.0383	10.6132	-0.152567
47.3267	10.557	-0.150030
47.615	10.5008	-0.147251
47.9033	10.4421	-0.145981
48.1917	10.3852	-0.145601
48.48	10.3283	-0.145090
48.7683	10.2689	-0.144908
49.0567	10.212	-0.145239
49.345	10.1549	-0.144795
49.6333	10.0971	-0.144799
49.9217	10.0396	-0.144368
50.21	9.982783	-0.144125
50.4983	9.925800	-0.143953
50.7867	9.867245	-0.144035
51.075	9.809787	-0.143671
51.3633	9.751612	-0.143659
51.6517	9.694407	-0.143280
51.94	9.636704	-0.143052
52.2283	9.578326	-0.142730
52.5167	9.520120	-0.142517
52.805	9.463606	-0.142456
53.0933	9.405499	-0.142394
53.3817	9.348725	-0.142181
53.67	9.289820	-0.142055
53.9583	9.233051	-0.141850
54.2467	9.174552	-0.141798
54.535	9.117424	-0.141753
54.8233	9.060347	-0.141471
55.1117	9.001845	-0.141314
55.4	8.945921	-0.141183
55.6883	8.887056	-0.141017
55.9767	8.830088	-0.140894
56.265	8.771963	-0.140827
56.5533	8.714673	-0.140722
56.8417	8.656745	-0.140507
57.13	8.599514	-0.140403
57.4183	8.541350	-0.140331
57.7067	8.484940	-0.140110
57.995	8.427018	-0.139941
58.2833	8.368917	-0.139849
58.5717	8.310661	-0.139812
58.86	8.253544	-0.139647
59.1483	8.196341	-0.139546
59.4367	8.137931	-0.139459
59.725	8.080693	-0.139411
60.0133	8.023315	-0.139135
60.3017	7.965864	-0.139070
60.59	7.907748	-0.138972
60.8783	7.851243	-0.138808
61.1667	7.792686	-0.138681
61.455	7.735363	-0.138605
61.7433	7.677508	-0.138512
62.0317	7.620553	-0.138331
62.32	7.562160	-0.138226
62.6083	7.504036	-0.138034
62.8967	7.446132	-0.137968
63.185	7.388517	-0.137888
63.4733	7.330808	-0.137724
63.7617	7.274434	-0.137470
64.05	7.216661	-0.137424
64.3383	7.158924	-0.137327
64.6267	7.100989	-0.137268
64.915	7.043475	-0.137173
65.2033	6.986190	-0.137005
65.4917	6.928721	-0.136896
65.78	6.870504	-0.136775
66.0683	6.812484	-0.136733
66.3567	6.755266	-0.136568
66.645	6.699480	-0.136384
66.9333	6.641433	-0.136308
67.2217	6.581442	-0.136221
67.51	6.525049	-0.136049
67.7983	6.467899	-0.135938
68.0867	6.409734	-0.135824
68.375	6.352047	-0.135744
68.6633	6.294301	-0.135601
68.9517	6.236215	-0.135395
69.24	6.180347	-0.135262
69.5283	6.121839	-0.135275
69.8167	6.063996	-0.135238
70.105	6.005310	-0.135073
70.3933	5.949338	-0.134917
70.6817	5.891778	-0.134702
70.97	5.833810	-0.134583
71.2583	5.775581	-0.134493
71.5467	5.717965	-0.134323
71.835	5.660999	-0.134151
72.1233	5.603057	-0.134067
72.4117	5.544533	-0.134015
72.7	5.487450	-0.133906
72.9883	5.430110	-0.133750
73.2767	5.373062	-0.133592
73.565	5.314529	-0.133514
73.8533	5.257556	-0.133370
74.1417	5.199778	-0.133312
74.43	5.141400	-0.133302
74.7183	5.084508	-0.133199
75.0067	5.024514	-0.142971
75.295	4.964997	-0.144811
75.5833	4.909762	-0.139451
75.8717	4.853166	-0.136788
76.16	4.796166	-0.135257
76.4483	4.738239	-0.134382
76.7367	4.680723	-0.133924
77.025	4.624000	-0.133648
77.3133	4.564850	-0.133364
77.6017	4.508163	-0.133203
77.89	4.450033	-0.133026
78.1783	4.392346	-0.132785
78.4667	4.334980	-0.132609
78.755	4.277552	-0.132524
79.0433	4.219537	-0.132474
79.3317	4.162265	-0.132270
79.62	4.104382	-0.132151
79.9083	4.047360	-0.131973
80.1967	3.990114	-0.131908
80.485	3.931516	-0.131806
80.7733	3.873911	-0.131625
81.0617	3.817106	-0.131526
81.35	3.758777	-0.131368
81.6383	3.701064	-0.131224
81.9267	3.643959	-0.131125
82.215	3.585345	-0.131047
82.5033	3.528079	-0.130954
82.7917	3.470783	-0.131224
83.08	3.412611	-0.130843
83.3683	3.355198	-0.130520
83.6567	3.298351	-0.130317
83.945	3.240537	-0.130081
84.2333	3.183091	-0.130116
84.5217	3.124903	-0.129952
84.81	3.067279	-0.129895
85.0983	3.009862	-0.129802
85.3867	2.951393	-0.129699
85.675	2.894176	-0.129560
85.9633	2.837090	-0.129470
86.2517	2.779938	-0.129418
86.54	2.722170	-0.129331
86.8283	2.663446	-0.129193
87.1167	2.607446	-0.129077
87.405	2.548466	-0.128969
87.6933	2.491536	-0.128829
87.9817	2.434733	-0.128716
88.27	2.375767	-0.128678
88.5583	2.318123	-0.128625
88.8467	2.260360	-0.128501
89.135	2.202914	-0.128339
89.4233	2.146755	-0.128408
89.7117	2.087688	-0.128265
90	2.030551	-0.128172
90.2883	1.973018	-0.128179
90.5767	1.915444	-0.128080
90.865	1.857300	-0.127965
91.1533	1.800089	-0.127864
91.4417	1.742502	-0.127907
91.73	1.685223	-0.127722
92.0183	1.626691	-0.127580
92.3067	1.568908	-0.127491
92.595	1.511745	-0.127366
92.8833	1.453423	-0.127359
93.1717	1.396497	-0.127328
93.46	1.339948	-0.127283
93.7483	1.281771	-0.127146
94.0367	1.223673	-0.126976
94.325	1.165444	-0.126840
94.6133	1.108762	-0.126804
94.9017	1.051756	-0.126750
95.19	0.992862	-0.126641
95.4783	0.935317	-0.126495
95.7667	0.877123	-0.126466
96.055	0.819917	-0.126448
96.3433	0.762657	-0.126321
96.6317	0.704914	-0.126229
96.92	0.646960	-0.126253
97.2083	0.588775	-0.126186
97.4967	0.531144	-0.126077
97.785	0.474478	-0.125958
97.9417	0.443772	-0.126040