File: 240614_metoh_nc5_0.111w_0.2rate.txt
Time	Temperature	Heat Flow (Normalized)
min	Â°C	W/g
28.2683	17.3853	-0.070098
28.5583	17.3284	-0.070027
28.8483	17.2696	-0.069985
29.1383	17.2115	-0.070056
29.4283	17.1539	-0.069971
29.7183	17.0955	-0.069916
30.0083	17.0374	-0.069977
30.2983	16.9797	-0.070050
30.5883	16.9217	-0.069987
30.8783	16.863	-0.069996
31.1683	16.806	-0.069885
31.4583	16.7476	-0.069917
31.7483	16.6913	-0.069883
32.0383	16.6317	-0.069785
32.3283	16.5734	-0.069587
32.6183	16.5157	-0.069475
32.9083	16.4576	-0.069593
33.1983	16.4	-0.069671
33.4883	16.3423	-0.069770
33.7783	16.2831	-0.069750
34.0683	16.2262	-0.069713
34.3583	16.1681	-0.069686
34.6483	16.1102	-0.069648
34.9383	16.0523	-0.069613
35.2283	15.9936	-0.069531
35.5183	15.9355	-0.069501
35.8083	15.8778	-0.069488
36.0983	15.8199	-0.069552
36.3883	15.7615	-0.069432
36.6783	15.7049	-0.069464
36.9683	15.646	-0.069358
37.2583	15.5875	-0.069341
37.5483	15.5299	-0.069341
37.8383	15.4715	-0.069370
38.1283	15.4137	-0.069340
38.4183	15.3553	-0.069343
38.7083	15.2967	-0.069380
38.9983	15.2402	-0.069345
39.2883	15.1822	-0.069328
39.5783	15.1236	-0.069393
39.8683	15.0669	-0.069341
40.1583	15.0083	-0.069402
40.4483	14.9498	-0.069321
40.7383	14.8921	-0.069363
41.0283	14.8338	-0.069261
41.3183	14.7767	-0.069298
41.6083	14.7186	-0.069265
41.8983	14.6598	-0.069231
42.1883	14.6025	-0.069251
42.4783	14.5431	-0.069248
42.7683	14.4861	-0.069256
43.0583	14.4278	-0.069267
43.3483	14.3699	-0.069272
43.6383	14.3122	-0.069243
43.9283	14.2537	-0.069276
44.2183	14.1964	-0.069284
44.5083	14.1383	-0.069199
44.7983	14.08	-0.069131
45.0883	14.0237	-0.069141
45.3783	13.964	-0.069119
45.6683	13.9053	-0.069094
45.9583	13.8486	-0.069186
46.2483	13.79	-0.069090
46.5383	13.7309	-0.069143
46.8283	13.6744	-0.069142
47.1183	13.6155	-0.069157
47.4083	13.5582	-0.069109
47.6983	13.5005	-0.069091
47.9883	13.444	-0.069034
48.2783	13.3843	-0.068997
48.5683	13.3261	-0.069063
48.8583	13.2679	-0.069018
49.1483	13.2101	-0.068973
49.4383	13.1542	-0.069050
49.7283	13.0951	-0.069044
50.0183	13.0358	-0.069027
50.3083	12.979	-0.069028
50.5983	12.9201	-0.068987
50.8883	12.8619	-0.069066
51.1783	12.8039	-0.069136
51.4683	12.7468	-0.069092
51.7583	12.6886	-0.069056
52.0483	12.6298	-0.069030
52.3383	12.5729	-0.069029
52.6283	12.5137	-0.069032
52.9183	12.4559	-0.068995
53.2083	12.3988	-0.069016
53.4983	12.3402	-0.068933
53.7883	12.282	-0.069244
54.0783	12.2252	-0.069508
54.3683	12.1665	-0.069527
54.6583	12.108	-0.069519
54.9483	12.0499	-0.069729
55.2383	11.9908	-0.069861
55.5283	11.9331	-0.070068
55.8183	11.8745	-0.070071
56.1083	11.8174	-0.070189
56.3983	11.76	-0.070163
56.6883	11.7019	-0.070047
56.9783	11.6429	-0.069956
57.2683	11.5851	-0.069980
57.5583	11.528	-0.069968
57.8483	11.4705	-0.069879
58.1383	11.4109	-0.069798
58.4283	11.3535	-0.069816
58.7183	11.2961	-0.069718
59.0083	11.2381	-0.069675
59.2983	11.1803	-0.069610
59.5883	11.1228	-0.069658
59.8783	11.0634	-0.069649
60.1683	11.0063	-0.069774
60.4583	10.9471	-0.069643
60.7483	10.8902	-0.069649
61.0383	10.8324	-0.069602
61.3283	10.7743	-0.069523
61.6183	10.7169	-0.069514
61.9083	10.6569	-0.069495
62.1983	10.599	-0.069547
62.4883	10.5424	-0.069548
62.7783	10.4834	-0.069460
63.0683	10.4256	-0.069518
63.3583	10.3684	-0.069506
63.6483	10.3098	-0.069475
63.9383	10.2528	-0.069469
64.2283	10.1943	-0.069394
64.5183	10.1359	-0.069392
64.8083	10.078	-0.069371
65.0983	10.02	-0.069446
65.3883	9.961750	-0.069414
65.6783	9.905078	-0.069397
65.9683	9.845729	-0.069361
66.2583	9.788702	-0.069310
66.5483	9.731125	-0.069307
66.8383	9.671604	-0.069302
67.1283	9.614621	-0.069328
67.4183	9.555966	-0.069292
67.7083	9.498685	-0.069277
67.9983	9.439818	-0.069267
68.2883	9.381587	-0.069293
68.5783	9.324376	-0.069265
68.8683	9.266925	-0.069235
69.1583	9.207737	-0.069224
69.4483	9.150050	-0.069211
69.7383	9.092275	-0.069154
70.0283	9.033677	-0.069113
70.3183	8.977282	-0.069138
70.6083	8.919462	-0.069174
70.8983	8.860424	-0.069108
71.1883	8.802985	-0.069127
71.4783	8.744003	-0.069124
71.7683	8.685862	-0.069075
72.0583	8.627490	-0.069160
72.3483	8.570572	-0.069167
72.6383	8.512343	-0.069144
72.9283	8.455473	-0.069054
73.2183	8.396474	-0.069056
73.5083	8.337717	-0.069086
73.7983	8.280236	-0.069118
74.0883	8.222053	-0.069041
74.3783	8.164886	-0.068997
74.6683	8.106512	-0.069025
74.9583	8.048324	-0.069056
75.2483	7.989887	-0.069005
75.5383	7.933258	-0.068898
75.8283	7.874404	-0.068925
76.1183	7.815938	-0.068942
76.4083	7.758435	-0.068990
76.6983	7.699487	-0.068987
76.9883	7.643524	-0.068928
77.2783	7.585183	-0.068874
77.5683	7.526374	-0.068933
77.8583	7.467959	-0.068901
78.1483	7.410138	-0.068833
78.4383	7.352105	-0.068820
78.7283	7.294569	-0.068854
79.0183	7.236951	-0.068833
79.3083	7.178757	-0.068921
79.5983	7.120989	-0.068867
79.8883	7.062868	-0.068896
80.1783	7.003959	-0.068932
80.4683	6.947152	-0.068920
80.7583	6.887934	-0.068886
81.0483	6.830468	-0.068934
81.3383	6.772237	-0.068947
81.6283	6.713991	-0.068929
81.9183	6.656116	-0.068816
82.2083	6.599035	-0.068781
82.4983	6.540544	-0.068765
82.7883	6.483291	-0.068774
83.0783	6.424967	-0.068780
83.3683	6.367239	-0.068881
83.6583	6.307670	-0.068874
83.9483	6.250273	-0.068853
84.2383	6.192559	-0.068820
84.5283	6.133806	-0.068827
84.8183	6.077143	-0.068898
85.1083	6.019876	-0.068936
85.3983	5.960397	-0.068931
85.6883	5.902397	-0.068909
85.9783	5.845533	-0.068804
86.2683	5.786118	-0.068768
86.5583	5.730316	-0.068782
86.8483	5.670956	-0.068804
87.1383	5.611975	-0.068853
87.4283	5.554509	-0.068811
87.7183	5.496941	-0.068782
88.0083	5.438690	-0.068803
88.2983	5.381387	-0.068760
88.5883	5.323418	-0.068744
88.8783	5.264369	-0.068781
89.1683	5.207734	-0.068791
89.4583	5.150228	-0.068755
89.7483	5.090520	-0.068761
90.0383	5.031792	-0.068830
90.3283	4.975289	-0.068765
90.6183	4.916884	-0.068806
90.9083	4.858341	-0.068760
91.1983	4.800892	-0.068761
91.4883	4.742950	-0.068744
91.7783	4.684578	-0.068759
92.0683	4.626259	-0.068782
92.3583	4.569901	-0.068772
92.6483	4.511662	-0.068764
92.9383	4.452561	-0.068797
93.2283	4.394458	-0.068760
93.5183	4.336605	-0.068765
93.8083	4.278454	-0.068729
94.0983	4.220979	-0.068774
94.3883	4.162945	-0.068870
94.6783	4.104854	-0.068873
94.9683	4.046896	-0.068937
95.2583	3.990027	-0.068903
95.5483	3.931887	-0.068866
95.8383	3.872983	-0.068812
96.1283	3.814919	-0.068823
96.4183	3.757063	-0.068906
96.7083	3.699656	-0.068931
96.9983	3.640735	-0.068836
97.2883	3.584714	-0.068849
97.5783	3.523606	-0.068834
97.8683	3.466098	-0.068837
98.1583	3.408126	-0.068826
98.4483	3.350168	-0.068848
98.7383	3.292387	-0.068840
99.0283	3.236122	-0.068820
99.3183	3.177628	-0.068845
99.6083	3.119732	-0.068920
99.8983	3.062103	-0.068886
100.188	3.001830	-0.068816
100.478	2.944647	-0.068897
100.768	2.886426	-0.068800
101.058	2.829892	-0.068856
101.348	2.770997	-0.068810
101.638	2.712422	-0.068771
101.928	2.655310	-0.068732
102.218	2.597265	-0.068722
102.508	2.538303	-0.068735
102.798	2.481952	-0.068778
103.088	2.423794	-0.068857
103.378	2.365767	-0.068793
103.668	2.306917	-0.068850
103.958	2.249082	-0.068766
104.248	2.192564	-0.068738
104.538	2.132755	-0.068719
104.828	2.074646	-0.068769
105.118	2.016128	-0.068743
105.408	1.958158	-0.068743
105.698	1.900134	-0.068799
105.988	1.843061	-0.068780
106.278	1.785388	-0.068726
106.568	1.727805	-0.068801
106.858	1.669269	-0.068801
107.148	1.611228	-0.068778
107.438	1.552878	-0.068727
107.728	1.495405	-0.068772
108.018	1.437570	-0.068740
108.308	1.378443	-0.068689
108.598	1.321511	-0.068744
108.888	1.264115	-0.068758
109.178	1.205282	-0.068846
109.468	1.146845	-0.068835
109.758	1.088271	-0.068795
110.048	1.030690	-0.068765
110.338	0.974019	-0.068850
110.628	0.915129	-0.068818
110.918	0.857014	-0.068846
111.208	0.799176	-0.068841
111.498	0.741287	-0.068860
111.788	0.683056	-0.068886
112.078	0.625201	-0.068860
112.368	0.567727	-0.068839
112.658	0.508419	-0.068841
112.948	0.451453	-0.068962
113.238	0.393574	-0.068885
113.528	0.334811	-0.068885
113.818	0.276098	-0.068837
114.108	0.219871	-0.068848
114.398	0.161276	-0.068799
114.688	0.103060	-0.068847
114.978	0.045394	-0.068797
114.99	0.043461	-0.068797